 Cu Density=8.96 Thickness=1. microns
 Photon Energy (eV), Transmission
    5000.0      0.84563    
    5040.8      0.84875    
    5081.6      0.85178    
    5122.4      0.85473    
    5163.3      0.85761    
    5204.1      0.86041    
    5244.9      0.86315    
    5285.7      0.86582    
    5326.5      0.86842    
    5367.3      0.87095    
    5408.2      0.87342    
    5449.0      0.87583    
    5489.8      0.87818    
    5530.6      0.88048    
    5571.4      0.88272    
    5612.2      0.88490    
    5653.1      0.88703    
    5693.9      0.88911    
    5734.7      0.89114    
    5775.5      0.89313    
    5816.3      0.89506    
    5857.1      0.89695    
    5898.0      0.89880    
    5938.8      0.90061    
    5979.6      0.90237    
    6020.4      0.90409    
    6061.2      0.90577    
    6102.0      0.90741    
    6142.9      0.90902    
    6183.7      0.91059    
    6224.5      0.91213    
    6265.3      0.91363    
    6306.1      0.91510    
    6346.9      0.91654    
    6387.8      0.91794    
    6428.6      0.91932    
    6469.4      0.92066    
    6510.2      0.92198    
    6551.0      0.92327    
    6591.8      0.92453    
    6632.7      0.92576    
    6673.5      0.92697    
    6714.3      0.92815    
    6755.1      0.92930    
    6795.9      0.93044    
    6836.7      0.93155    
    6877.6      0.93263    
    6918.4      0.93370    
    6959.2      0.93474    
    7000.0      0.93576    
    7040.8      0.93676    
    7081.6      0.93774    
    7122.4      0.93870    
    7163.3      0.93964    
    7204.1      0.94056    
    7244.9      0.94147    
    7285.7      0.94236    
    7326.5      0.94323    
    7367.3      0.94408    
    7408.2      0.94491    
    7449.0      0.94573    
    7489.8      0.94654    
    7530.6      0.94733    
    7571.4      0.94810    
    7612.2      0.94886    
    7653.1      0.94960    
    7693.9      0.95034    
    7734.7      0.95105    
    7775.5      0.95176    
    7816.3      0.95245    
    7857.1      0.95313    
    7898.0      0.95379    
    7938.8      0.95444    
    7979.6      0.95509    
    8020.4      0.95572    
    8061.2      0.95633    
    8102.0      0.95694    
    8142.9      0.95754    
    8183.7      0.95813    
    8224.5      0.95870    
    8265.3      0.95927    
    8306.1      0.95982    
    8346.9      0.96037    
    8387.8      0.96091    
    8428.6      0.96143    
    8469.4      0.96195    
    8510.2      0.96246    
    8551.0      0.96296    
    8591.8      0.96345    
    8632.7      0.96394    
    8673.5      0.96441    
    8714.3      0.96488    
    8755.1      0.96534    
    8795.9      0.96579    
    8836.7      0.96624    
    8877.6      0.96667    
    8918.4      0.96710    
    8959.2      0.96752    
    9000.0      0.77631    
    9040.8      0.77849    
    9081.6      0.78064    
    9122.4      0.78276    
    9163.3      0.78486    
    9204.1      0.78694    
    9244.9      0.78899    
    9285.7      0.79101    
    9326.5      0.79302    
    9367.3      0.79501    
    9408.2      0.79697    
    9449.0      0.79891    
    9489.8      0.80083    
    9530.6      0.80272    
    9571.4      0.80460    
    9612.2      0.80645    
    9653.1      0.80829    
    9693.9      0.81010    
    9734.7      0.81189    
    9775.5      0.81366    
    9816.3      0.81541    
    9857.1      0.81714    
    9898.0      0.81885    
    9938.8      0.82054    
    9979.6      0.82222    
    10020.      0.82388    
    10061.      0.82551    
    10102.      0.82713    
    10143.      0.82874    
    10184.      0.83032    
    10224.      0.83188    
    10265.      0.83343    
    10306.      0.83496    
    10347.      0.83648    
    10388.      0.83797    
    10429.      0.83945    
    10469.      0.84092    
    10510.      0.84237    
    10551.      0.84380    
    10592.      0.84521    
    10633.      0.84661    
    10673.      0.84800    
    10714.      0.84937    
    10755.      0.85072    
    10796.      0.85206    
    10837.      0.85338    
    10878.      0.85469    
    10918.      0.85599    
    10959.      0.85727    
    11000.      0.85854    
    11041.      0.85979    
    11082.      0.86103    
    11122.      0.86225    
    11163.      0.86347    
    11204.      0.86467    
    11245.      0.86585    
    11286.      0.86702    
    11327.      0.86819    
    11367.      0.86934    
    11408.      0.87047    
    11449.      0.87159    
    11490.      0.87270    
    11531.      0.87380    
    11571.      0.87489    
    11612.      0.87597    
    11653.      0.87703    
    11694.      0.87808    
    11735.      0.87912    
    11776.      0.88015    
    11816.      0.88117    
    11857.      0.88218    
    11898.      0.88318    
    11939.      0.88417    
    11980.      0.88514    
    12020.      0.88611    
    12061.      0.88706    
    12102.      0.88801    
    12143.      0.88895    
    12184.      0.88987    
    12224.      0.89079    
    12265.      0.89169    
    12306.      0.89259    
    12347.      0.89348    
    12388.      0.89436    
    12429.      0.89523    
    12469.      0.89609    
    12510.      0.89694    
    12551.      0.89778    
    12592.      0.89861    
    12633.      0.89944    
    12673.      0.90026    
    12714.      0.90107    
    12755.      0.90187    
    12796.      0.90266    
    12837.      0.90344    
    12878.      0.90422    
    12918.      0.90498    
    12959.      0.90574    
    13000.      0.90649    
    13041.      0.90724    
    13082.      0.90798    
    13122.      0.90871    
    13163.      0.90943    
    13204.      0.91014    
    13245.      0.91085    
    13286.      0.91155    
    13327.      0.91224    
    13367.      0.91293    
    13408.      0.91361    
    13449.      0.91428    
    13490.      0.91495    
    13531.      0.91561    
    13571.      0.91626    
    13612.      0.91691    
    13653.      0.91755    
    13694.      0.91818    
    13735.      0.91881    
    13776.      0.91943    
    13816.      0.92005    
    13857.      0.92066    
    13898.      0.92126    
    13939.      0.92186    
    13980.      0.92245    
    14020.      0.92303    
    14061.      0.92361    
    14102.      0.92419    
    14143.      0.92476    
    14184.      0.92532    
    14224.      0.92588    
    14265.      0.92643    
    14306.      0.92698    
    14347.      0.92752    
    14388.      0.92806    
    14429.      0.92859    
    14469.      0.92912    
    14510.      0.92964    
    14551.      0.93016    
    14592.      0.93067    
    14633.      0.93118    
    14673.      0.93168    
    14714.      0.93218    
    14755.      0.93267    
    14796.      0.93316    
    14837.      0.93364    
    14878.      0.93412    
    14918.      0.93459    
    14959.      0.93506    
    15000.      0.93553    
    15041.      0.93599    
    15082.      0.93645    
    15122.      0.93690    
    15163.      0.93735    
    15204.      0.93780    
    15245.      0.93824    
    15286.      0.93867    
    15327.      0.93911    
    15367.      0.93954    
    15408.      0.93996    
    15449.      0.94038    
    15490.      0.94080    
    15531.      0.94121    
    15571.      0.94162    
    15612.      0.94203    
    15653.      0.94243    
    15694.      0.94283    
    15735.      0.94322    
    15776.      0.94362    
    15816.      0.94400    
    15857.      0.94439    
    15898.      0.94477    
    15939.      0.94515    
    15980.      0.94552    
    16020.      0.94589    
    16061.      0.94626    
    16102.      0.94662    
    16143.      0.94699    
    16184.      0.94734    
    16224.      0.94770    
    16265.      0.94805    
    16306.      0.94840    
    16347.      0.94874    
    16388.      0.94909    
    16429.      0.94943    
    16469.      0.94976    
    16510.      0.95010    
    16551.      0.95043    
    16592.      0.95076    
    16633.      0.95108    
    16673.      0.95140    
    16714.      0.95172    
    16755.      0.95204    
    16796.      0.95236    
    16837.      0.95267    
    16878.      0.95298    
    16918.      0.95328    
    16959.      0.95359    
    17000.      0.95389    
    17041.      0.95419    
    17082.      0.95448    
    17122.      0.95478    
    17163.      0.95507    
    17204.      0.95536    
    17245.      0.95564    
    17286.      0.95593    
    17327.      0.95621    
    17367.      0.95649    
    17408.      0.95676    
    17449.      0.95704    
    17490.      0.95731    
    17531.      0.95758    
    17571.      0.95785    
    17612.      0.95811    
    17653.      0.95837    
    17694.      0.95864    
    17735.      0.95890    
    17776.      0.95915    
    17816.      0.95941    
    17857.      0.95966    
    17898.      0.95991    
    17939.      0.96016    
    17980.      0.96041    
    18020.      0.96065    
    18061.      0.96089    
    18102.      0.96113    
    18143.      0.96137    
    18184.      0.96161    
    18224.      0.96184    
    18265.      0.96208    
    18306.      0.96231    
    18347.      0.96254    
    18388.      0.96276    
    18429.      0.96299    
    18469.      0.96321    
    18510.      0.96344    
    18551.      0.96366    
    18592.      0.96387    
    18633.      0.96409    
    18673.      0.96431    
    18714.      0.96452    
    18755.      0.96473    
    18796.      0.96494    
    18837.      0.96515    
    18878.      0.96536    
    18918.      0.96556    
    18959.      0.96577    
    19000.      0.96597    
    19041.      0.96617    
    19082.      0.96637    
    19122.      0.96657    
    19163.      0.96676    
    19204.      0.96696    
    19245.      0.96715    
    19286.      0.96734    
    19327.      0.96753    
    19367.      0.96772    
    19408.      0.96791    
    19449.      0.96809    
    19490.      0.96828    
    19531.      0.96846    
    19571.      0.96864    
    19612.      0.96882    
    19653.      0.96900    
    19694.      0.96918    
    19735.      0.96935    
    19776.      0.96953    
    19816.      0.96970    
    19857.      0.96987    
    19898.      0.97004    
    19939.      0.97021    
    19980.      0.97038    
    20020.      0.97055    
    20061.      0.97071    
    20102.      0.97088    
    20143.      0.97104    
    20184.      0.97120    
    20224.      0.97136    
    20265.      0.97152    
    20306.      0.97168    
    20347.      0.97184    
    20388.      0.97200    
    20429.      0.97215    
    20469.      0.97231    
    20510.      0.97246    
    20551.      0.97261    
    20592.      0.97276    
    20633.      0.97291    
    20673.      0.97306    
    20714.      0.97321    
    20755.      0.97335    
    20796.      0.97350    
    20837.      0.97364    
    20878.      0.97379    
    20918.      0.97393    
    20959.      0.97407    
    21000.      0.97421    
    21041.      0.97435    
    21082.      0.97449    
    21122.      0.97462    
    21163.      0.97476    
    21204.      0.97490    
    21245.      0.97503    
    21286.      0.97516    
    21327.      0.97530    
    21367.      0.97543    
    21408.      0.97556    
    21449.      0.97569    
    21490.      0.97582    
    21531.      0.97594    
    21571.      0.97607    
    21612.      0.97620    
    21653.      0.97632    
    21694.      0.97645    
    21735.      0.97657    
    21776.      0.97669    
    21816.      0.97681    
    21857.      0.97693    
    21898.      0.97705    
    21939.      0.97717    
    21980.      0.97729    
    22020.      0.97741    
    22061.      0.97753    
    22102.      0.97764    
    22143.      0.97776    
    22184.      0.97787    
    22224.      0.97799    
    22265.      0.97810    
    22306.      0.97821    
    22347.      0.97832    
    22388.      0.97843    
    22429.      0.97854    
    22469.      0.97865    
    22510.      0.97876    
    22551.      0.97887    
    22592.      0.97898    
    22633.      0.97908    
    22673.      0.97919    
    22714.      0.97929    
    22755.      0.97940    
    22796.      0.97950    
    22837.      0.97960    
    22878.      0.97970    
    22918.      0.97981    
    22959.      0.97991    
    23000.      0.98001    
    23041.      0.98011    
    23082.      0.98020    
    23122.      0.98030    
    23163.      0.98040    
    23204.      0.98050    
    23245.      0.98059    
    23286.      0.98069    
    23327.      0.98078    
    23367.      0.98088    
    23408.      0.98097    
    23449.      0.98106    
    23490.      0.98116    
    23531.      0.98125    
    23571.      0.98134    
    23612.      0.98143    
    23653.      0.98152    
    23694.      0.98161    
    23735.      0.98170    
    23776.      0.98179    
    23816.      0.98188    
    23857.      0.98196    
    23898.      0.98205    
    23939.      0.98214    
    23980.      0.98222    
    24020.      0.98231    
    24061.      0.98239    
    24102.      0.98247    
    24143.      0.98256    
    24184.      0.98264    
    24224.      0.98272    
    24265.      0.98281    
    24306.      0.98289    
    24347.      0.98297    
    24388.      0.98305    
    24429.      0.98313    
    24469.      0.98321    
    24510.      0.98329    
    24551.      0.98336    
    24592.      0.98344    
    24633.      0.98352    
    24673.      0.98360    
    24714.      0.98367    
    24755.      0.98375    
    24796.      0.98382    
    24837.      0.98390    
    24878.      0.98397    
    24918.      0.98405    
    24959.      0.98412    
    25000.      0.98419    