 Ta Density=16.654 Thickness=1. microns
 Photon Energy (eV), Transmission
    5000.0      0.41247    
    5040.8      0.41994    
    5081.6      0.42734    
    5122.4      0.43466    
    5163.3      0.44190    
    5204.1      0.44906    
    5244.9      0.45614    
    5285.7      0.46313    
    5326.5      0.47005    
    5367.3      0.47689    
    5408.2      0.48364    
    5449.0      0.49030    
    5489.8      0.49688    
    5530.6      0.50338    
    5571.4      0.50980    
    5612.2      0.51614    
    5653.1      0.52239    
    5693.9      0.52856    
    5734.7      0.53465    
    5775.5      0.54065    
    5816.3      0.54657    
    5857.1      0.55242    
    5898.0      0.55818    
    5938.8      0.56386    
    5979.6      0.56946    
    6020.4      0.57499    
    6061.2      0.58044    
    6102.0      0.58581    
    6142.9      0.59110    
    6183.7      0.59632    
    6224.5      0.60146    
    6265.3      0.60652    
    6306.1      0.61152    
    6346.9      0.61644    
    6387.8      0.62129    
    6428.6      0.62607    
    6469.4      0.63078    
    6510.2      0.63542    
    6551.0      0.64000    
    6591.8      0.64450    
    6632.7      0.64894    
    6673.5      0.65332    
    6714.3      0.65763    
    6755.1      0.66187    
    6795.9      0.66606    
    6836.7      0.67018    
    6877.6      0.67424    
    6918.4      0.67824    
    6959.2      0.68218    
    7000.0      0.68606    
    7040.8      0.68988    
    7081.6      0.69365    
    7122.4      0.69736    
    7163.3      0.70102    
    7204.1      0.70463    
    7244.9      0.70818    
    7285.7      0.71167    
    7326.5      0.71511    
    7367.3      0.71851    
    7408.2      0.72185    
    7449.0      0.72515    
    7489.8      0.72840    
    7530.6      0.73160    
    7571.4      0.73475    
    7612.2      0.73785    
    7653.1      0.74091    
    7693.9      0.74392    
    7734.7      0.74689    
    7775.5      0.74982    
    7816.3      0.75271    
    7857.1      0.75555    
    7898.0      0.75835    
    7938.8      0.76111    
    7979.6      0.76383    
    8020.4      0.76651    
    8061.2      0.76915    
    8102.0      0.77176    
    8142.9      0.77432    
    8183.7      0.77685    
    8224.5      0.77934    
    8265.3      0.78180    
    8306.1      0.78422    
    8346.9      0.78661    
    8387.8      0.78897    
    8428.6      0.79129    
    8469.4      0.79358    
    8510.2      0.79584    
    8551.0      0.79806    
    8591.8      0.80026    
    8632.7      0.80242    
    8673.5      0.80455    
    8714.3      0.80665    
    8755.1      0.80872    
    8795.9      0.81077    
    8836.7      0.81278    
    8877.6      0.81477    
    8918.4      0.81673    
    8959.2      0.81867    
    9000.0      0.82057    
    9040.8      0.82245    
    9081.6      0.82431    
    9122.4      0.82614    
    9163.3      0.82794    
    9204.1      0.82972    
    9244.9      0.83148    
    9285.7      0.83321    
    9326.5      0.83492    
    9367.3      0.83661    
    9408.2      0.83828    
    9449.0      0.83992    
    9489.8      0.84154    
    9530.6      0.84314    
    9571.4      0.84471    
    9612.2      0.84627    
    9653.1      0.84781    
    9693.9      0.84932    
    9734.7      0.85082    
    9775.5      0.85229    
    9816.3      0.85375    
    9857.1      0.85519    
    9898.0      0.66595    
    9938.8      0.66911    
    9979.6      0.67223    
    10020.      0.67531    
    10061.      0.67836    
    10102.      0.68138    
    10143.      0.68437    
    10184.      0.68732    
    10224.      0.69024    
    10265.      0.69312    
    10306.      0.69598    
    10347.      0.69880    
    10388.      0.70159    
    10429.      0.70435    
    10469.      0.70708    
    10510.      0.70978    
    10551.      0.71245    
    10592.      0.71509    
    10633.      0.71770    
    10673.      0.72028    
    10714.      0.72284    
    10755.      0.72536    
    10796.      0.72786    
    10837.      0.73033    
    10878.      0.73277    
    10918.      0.73519    
    10959.      0.73758    
    11000.      0.73994    
    11041.      0.74227    
    11082.      0.74458    
    11122.      0.74687    
    11163.      0.66620    
    11204.      0.66904    
    11245.      0.67185    
    11286.      0.67463    
    11327.      0.67739    
    11367.      0.68012    
    11408.      0.68282    
    11449.      0.68549    
    11490.      0.68814    
    11531.      0.69076    
    11571.      0.69336    
    11612.      0.69592    
    11653.      0.69847    
    11694.      0.67054    
    11735.      0.67278    
    11776.      0.67499    
    11816.      0.67719    
    11857.      0.67936    
    11898.      0.68152    
    11939.      0.68366    
    11980.      0.68579    
    12020.      0.68789    
    12061.      0.68999    
    12102.      0.69207    
    12143.      0.69413    
    12184.      0.69618    
    12224.      0.69821    
    12265.      0.70023    
    12306.      0.70223    
    12347.      0.70422    
    12388.      0.70619    
    12429.      0.70815    
    12469.      0.71010    
    12510.      0.71202    
    12551.      0.71394    
    12592.      0.71584    
    12633.      0.71772    
    12673.      0.71960    
    12714.      0.72146    
    12755.      0.72330    
    12796.      0.72513    
    12837.      0.72694    
    12878.      0.72875    
    12918.      0.73054    
    12959.      0.73231    
    13000.      0.73407    
    13041.      0.73582    
    13082.      0.73755    
    13122.      0.73928    
    13163.      0.74099    
    13204.      0.74268    
    13245.      0.74436    
    13286.      0.74604    
    13327.      0.74770    
    13367.      0.74934    
    13408.      0.75097    
    13449.      0.75259    
    13490.      0.75420    
    13531.      0.75580    
    13571.      0.75738    
    13612.      0.75895    
    13653.      0.76051    
    13694.      0.76205    
    13735.      0.76359    
    13776.      0.76511    
    13816.      0.76663    
    13857.      0.76813    
    13898.      0.76961    
    13939.      0.77109    
    13980.      0.77256    
    14020.      0.77402    
    14061.      0.77546    
    14102.      0.77689    
    14143.      0.77831    
    14184.      0.77972    
    14224.      0.78113    
    14265.      0.78251    
    14306.      0.78389    
    14347.      0.78526    
    14388.      0.78662    
    14429.      0.78797    
    14469.      0.78931    
    14510.      0.79063    
    14551.      0.79195    
    14592.      0.79326    
    14633.      0.79455    
    14673.      0.79584    
    14714.      0.79712    
    14755.      0.79838    
    14796.      0.79964    
    14837.      0.80089    
    14878.      0.80213    
    14918.      0.80336    
    14959.      0.80458    
    15000.      0.80579    
    15041.      0.80699    
    15082.      0.80818    
    15122.      0.80937    
    15163.      0.81054    
    15204.      0.81171    
    15245.      0.81287    
    15286.      0.81401    
    15327.      0.81515    
    15367.      0.81629    
    15408.      0.81741    
    15449.      0.81852    
    15490.      0.81963    
    15531.      0.82072    
    15571.      0.82181    
    15612.      0.82289    
    15653.      0.82397    
    15694.      0.82503    
    15735.      0.82609    
    15776.      0.82714    
    15816.      0.82818    
    15857.      0.82921    
    15898.      0.83024    
    15939.      0.83125    
    15980.      0.83226    
    16020.      0.83327    
    16061.      0.83426    
    16102.      0.83525    
    16143.      0.83623    
    16184.      0.83720    
    16224.      0.83817    
    16265.      0.83912    
    16306.      0.84008    
    16347.      0.84102    
    16388.      0.84196    
    16429.      0.84289    
    16469.      0.84381    
    16510.      0.84473    
    16551.      0.84564    
    16592.      0.84654    
    16633.      0.84744    
    16673.      0.84833    
    16714.      0.84921    
    16755.      0.85009    
    16796.      0.85096    
    16837.      0.85182    
    16878.      0.85268    
    16918.      0.85353    
    16959.      0.85438    
    17000.      0.85522    
    17041.      0.85605    
    17082.      0.85688    
    17122.      0.85770    
    17163.      0.85852    
    17204.      0.85932    
    17245.      0.86013    
    17286.      0.86093    
    17327.      0.86172    
    17367.      0.86250    
    17408.      0.86328    
    17449.      0.86406    
    17490.      0.86483    
    17531.      0.86559    
    17571.      0.86635    
    17612.      0.86710    
    17653.      0.86785    
    17694.      0.86859    
    17735.      0.86933    
    17776.      0.87006    
    17816.      0.87078    
    17857.      0.87151    
    17898.      0.87222    
    17939.      0.87293    
    17980.      0.87364    
    18020.      0.87434    
    18061.      0.87503    
    18102.      0.87572    
    18143.      0.87641    
    18184.      0.87709    
    18224.      0.87777    
    18265.      0.87844    
    18306.      0.87911    
    18347.      0.87977    
    18388.      0.88042    
    18429.      0.88108    
    18469.      0.88173    
    18510.      0.88237    
    18551.      0.88301    
    18592.      0.88364    
    18633.      0.88427    
    18673.      0.88490    
    18714.      0.88552    
    18755.      0.88614    
    18796.      0.88675    
    18837.      0.88736    
    18878.      0.88796    
    18918.      0.88856    
    18959.      0.88916    
    19000.      0.88975    
    19041.      0.89034    
    19082.      0.89092    
    19122.      0.89150    
    19163.      0.89208    
    19204.      0.89265    
    19245.      0.89322    
    19286.      0.89378    
    19327.      0.89435    
    19367.      0.89490    
    19408.      0.89545    
    19449.      0.89600    
    19490.      0.89655    
    19531.      0.89709    
    19571.      0.89763    
    19612.      0.89816    
    19653.      0.89869    
    19694.      0.89922    
    19735.      0.89974    
    19776.      0.90026    
    19816.      0.90078    
    19857.      0.90129    
    19898.      0.90180    
    19939.      0.90231    
    19980.      0.90281    
    20020.      0.90331    
    20061.      0.90381    
    20102.      0.90430    
    20143.      0.90479    
    20184.      0.90527    
    20224.      0.90576    
    20265.      0.90624    
    20306.      0.90671    
    20347.      0.90719    
    20388.      0.90766    
    20429.      0.90812    
    20469.      0.90859    
    20510.      0.90905    
    20551.      0.90951    
    20592.      0.90996    
    20633.      0.91042    
    20673.      0.91086    
    20714.      0.91131    
    20755.      0.91175    
    20796.      0.91219    
    20837.      0.91263    
    20878.      0.91307    
    20918.      0.91350    
    20959.      0.91393    
    21000.      0.91435    
    21041.      0.91478    
    21082.      0.91520    
    21122.      0.91562    
    21163.      0.91603    
    21204.      0.91644    
    21245.      0.91685    
    21286.      0.91726    
    21327.      0.91767    
    21367.      0.91807    
    21408.      0.91847    
    21449.      0.91886    
    21490.      0.91926    
    21531.      0.91965    
    21571.      0.92004    
    21612.      0.92043    
    21653.      0.92081    
    21694.      0.92119    
    21735.      0.92157    
    21776.      0.92195    
    21816.      0.92233    
    21857.      0.92270    
    21898.      0.92307    
    21939.      0.92344    
    21980.      0.92380    
    22020.      0.92417    
    22061.      0.92453    
    22102.      0.92489    
    22143.      0.92524    
    22184.      0.92560    
    22224.      0.92595    
    22265.      0.92630    
    22306.      0.92665    
    22347.      0.92699    
    22388.      0.92734    
    22429.      0.92768    
    22469.      0.92802    
    22510.      0.92835    
    22551.      0.92869    
    22592.      0.92902    
    22633.      0.92935    
    22673.      0.92968    
    22714.      0.93001    
    22755.      0.93033    
    22796.      0.93066    
    22837.      0.93098    
    22878.      0.93130    
    22918.      0.93161    
    22959.      0.93193    
    23000.      0.93224    
    23041.      0.93255    
    23082.      0.93286    
    23122.      0.93317    
    23163.      0.93348    
    23204.      0.93378    
    23245.      0.93408    
    23286.      0.93438    
    23327.      0.93468    
    23367.      0.93498    
    23408.      0.93527    
    23449.      0.93557    
    23490.      0.93586    
    23531.      0.93615    
    23571.      0.93643    
    23612.      0.93672    
    23653.      0.93700    
    23694.      0.93729    
    23735.      0.93757    
    23776.      0.93785    
    23816.      0.93813    
    23857.      0.93840    
    23898.      0.93868    
    23939.      0.93895    
    23980.      0.93922    
    24020.      0.93949    
    24061.      0.93976    
    24102.      0.94002    
    24143.      0.94029    
    24184.      0.94055    
    24224.      0.94082    
    24265.      0.94108    
    24306.      0.94133    
    24347.      0.94159    
    24388.      0.94185    
    24429.      0.94210    
    24469.      0.94235    
    24510.      0.94261    
    24551.      0.94286    
    24592.      0.94310    
    24633.      0.94335    
    24673.      0.94360    
    24714.      0.94384    
    24755.      0.94408    
    24796.      0.94433    
    24837.      0.94457    
    24878.      0.94480    
    24918.      0.94504    
    24959.      0.94528    
    25000.      0.94551    